 Si Density=3.44
 Wavelength (nm), Delta, Beta
  0.0500000007  1.16127001E-06  3.01971625E-09
  0.0509039536  1.20377297E-06  3.23722604E-09
  0.0518242493  1.24784151E-06  3.47094131E-09
  0.0527611859  1.29352566E-06  3.72210529E-09
  0.0537150577  1.34089044E-06  3.99202982E-09
  0.0546861775  1.38998939E-06  4.28210711E-09
  0.0556748509  1.44089245E-06  4.59384575E-09
  0.056681402  1.49366531E-06  4.92885377E-09
  0.0577061549  1.54837119E-06  5.28885646E-09
  0.0587494262  1.60509092E-06  5.67577363E-09
  0.0598115623  1.66389123E-06  6.09156281E-09
  0.0608928986  1.72485841E-06  6.53835652E-09
  0.0619937852  1.78805954E-06  7.01856839E-09
  0.063114576  1.85358215E-06  7.53401164E-09
  0.0642556325  1.92151538E-06  8.08745515E-09
  0.0654173121  1.99193778E-06  8.6818126E-09
  0.0665999949  2.06495247E-06  9.32017397E-09
  0.0678040609  2.14066245E-06  1.00056639E-08
  0.0690298975  2.21915184E-06  1.07417772E-08
  0.0702778921  2.30052069E-06  1.1532161E-08
  0.0715484545  2.38489065E-06  1.23809407E-08
  0.072841987  2.47236039E-06  1.32923006E-08
  0.0741588995  2.56305157E-06  1.42707801E-08
  0.075499624  2.65708104E-06  1.53215094E-08
  0.0768645927  2.75457069E-06  1.64496541E-08
  0.0782542303  2.85565307E-06  1.76608381E-08
  0.0796689913  2.96045118E-06  1.89612326E-08
  0.0811093375  3.06911761E-06  2.03569872E-08
  0.0825757235  3.18177831E-06  2.1855481E-08
  0.0840686187  3.29859722E-06  2.34634374E-08
  0.0855884999  3.41971372E-06  2.51895482E-08
  0.0871358588  3.54530812E-06  2.70423293E-08
  0.0887111947  3.67553071E-06  2.90310922E-08
  0.0903150067  3.81053633E-06  3.11659818E-08
  0.0919478238  3.9505253E-06  3.34570345E-08
  0.0936101601  4.09569247E-06  3.59167736E-08
  0.0953025445  4.24620021E-06  3.85556618E-08
  0.0970255211  4.40227632E-06  4.13882795E-08
  0.098779656  4.56411999E-06  4.44282371E-08
  0.100565493  4.73191176E-06  4.76905875E-08
  0.102383628  4.90589173E-06  5.11910265E-08
  0.104234636  5.08631229E-06  5.49476766E-08
  0.106119096  5.27341354E-06  5.89789053E-08
  0.108037643  5.46741148E-06  6.33040855E-08
  0.109990858  5.66854396E-06  6.79443914E-08
  0.111979388  5.87712702E-06  7.2923342E-08
  0.114003874  6.09343806E-06  7.82641294E-08
  0.116064958  6.31773082E-06  8.39949124E-08
  0.118163303  6.55028998E-06  9.01424357E-08
  0.120299593  6.79147161E-06  9.6737125E-08
  0.122474492  7.04156491E-06  1.03811331E-07
  0.124688722  7.30088914E-06  1.11398663E-07
  0.126942977  7.56981399E-06  1.19536594E-07
  0.129237995  7.84865733E-06  1.28265199E-07
  0.131574497  8.13784027E-06  1.37626756E-07
  0.133953243  8.43773341E-06  1.47664366E-07
  0.136374995  8.74870148E-06  1.58430964E-07
  0.138840526  9.07117374E-06  1.69976289E-07
  0.141350642  9.40553127E-06  1.82356089E-07
  0.143906116  9.75226249E-06  1.95632055E-07
  0.146507815  1.01118658E-05  2.09864979E-07
  0.149156541  1.04846704E-05  2.25126556E-07
  0.151853159  1.08713684E-05  2.41485793E-07
  0.154598519  1.12722673E-05  2.59025569E-07
  0.157393515  1.16880492E-05  2.77828434E-07
  0.160239041  1.21191888E-05  2.97983718E-07
  0.16313602  1.25662282E-05  3.19587059E-07
  0.166085377  1.3029804E-05  3.42741885E-07
  0.169088051  1.35105556E-05  3.67564439E-07
  0.172144994  1.40089778E-05  3.94159741E-07
  0.175257221  1.452587E-05  4.22662055E-07
  0.178425714  1.50617479E-05  4.53206354E-07
  0.181651488  1.5617461E-05  4.85930173E-07
  0.18493557  1.61935804E-05  5.21001823E-07
  0.188279033  1.67909493E-05  5.58570378E-07
  0.19168295  1.7410357E-05  5.98804945E-07
  0.195148394  1.80526677E-05  6.41964164E-07
  0.198676512  1.87184269E-05  6.88126761E-07
  0.202268392  1.94086806E-05  7.37586447E-07
  0.205925226  2.01243274E-05  7.90576905E-07
  0.209648162  2.08662241E-05  8.47333752E-07
  0.213438392  2.16354292E-05  9.08090556E-07
  0.217297181  2.24326486E-05  9.7315808E-07
  0.221225694  2.32591556E-05  1.04283504E-06
  0.225225255  2.41157613E-05  1.11743827E-06
  0.229297116  2.50036137E-05  1.19729225E-06
  0.233442619  2.59238186E-05  1.28277247E-06
  0.237663031  2.68776494E-05  1.37425673E-06
  0.241959766  2.78660118E-05  1.47219623E-06
  0.24633418  2.88903611E-05  1.57706836E-06
  0.250787675  2.99516105E-05  1.68919087E-06
  0.255321681  3.1051095E-05  1.80918494E-06
  0.259937674  3.21904627E-05  1.93756114E-06
  0.264637083  3.3370583E-05  2.07494099E-06
  0.269421488  3.45930857E-05  2.22190124E-06
  0.27429238  3.5859448E-05  2.37906829E-06
  0.279251337  3.71708156E-05  2.54718111E-06
  0.28429994  3.85289677E-05  2.72691068E-06
  0.289439827  3.99351447E-05  2.91913625E-06
  0.294672638  4.13907619E-05  3.1245786E-06
  0.300000042  4.28978237E-05  3.34422521E-06